wl		absorbance
900.000000	-0.000160 
899.000000	-0.000040 
898.000000	-0.000690 
897.000000	-0.001560 
896.000000	-0.001040 
895.000000	-0.000599 
894.000000	-0.001260 
893.000000	-0.001230 
892.000000	-0.000310 
891.000000	-0.000420 
890.000000	-0.000670 
889.000000	-0.000770 
888.000000	-0.000810 
887.000000	-0.000860 
886.000000	-0.000820 
885.000000	0.000130  
884.000000	0.000540  
883.000000	-0.000450 
882.000000	-0.000240 
881.000000	0.000190  
880.000000	0.000720  
879.000000	-0.000069 
878.000000	-0.000180 
877.000000	0.000950  
876.000000	0.000030  
875.000000	-0.000280 
874.000000	-0.000420 
873.000000	0.000710  
872.000000	0.001340  
871.000000	0.001090  
870.000000	0.000730  
869.000000	0.000270  
868.000000	0.000780  
867.000000	0.000300  
866.000000	0.000730  
865.000000	0.000030  
864.000000	0.000760  
863.000000	0.000540  
862.000000	0.000910  
861.000000	0.000500  
860.000000	-0.000150 
859.000000	-0.000570 
858.000000	-0.000570 
857.000000	-0.000570 
856.000000	-0.000130 
855.000000	0.000140  
854.000000	0.000500  
853.000000	0.000980  
852.000000	0.000540  
851.000000	0.000680  
850.000000	0.000390  
849.000000	0.000610  
848.000000	0.000820  
847.000000	0.000930  
846.000000	0.000970  
845.000000	0.000760  
844.000000	0.000520  
843.000000	0.001000  
842.000000	0.000930  
841.000000	0.000880  
840.000000	0.001330  
839.000000	0.001020  
838.000000	0.000720  
837.000000	0.000620  
836.000000	0.000510  
835.000000	0.001030  
834.000000	0.001570  
833.000000	0.001200  
832.000000	0.001030  
831.000000	0.001120  
830.000000	0.001070  
829.000000	0.000660  
828.000000	0.000530  
827.000000	0.000500  
826.000000	0.001040  
825.000000	0.001470  
824.000000	0.001780  
823.000000	0.001250  
822.000000	0.001230  
821.000000	0.001290  
820.000000	0.001210  
819.000000	0.001040  
818.000000	0.001210  
817.000000	0.001380  
816.000000	0.001380  
815.000000	0.001400  
814.000000	0.001180  
813.000000	0.001170  
812.000000	0.000700  
811.000000	0.000590  
810.000000	0.000970  
809.000000	0.001110  
808.000000	0.000930  
807.000000	0.000550  
806.000000	0.000690  
805.000000	0.000950  
804.000000	0.001030  
803.000000	0.001200  
802.000000	0.001110  
801.000000	0.001060  
800.000000	0.001160  
799.000000	0.001010  
798.000000	0.001080  
797.000000	0.001450  
796.000000	0.001160  
795.000000	0.001430  
794.000000	0.001640  
793.000000	0.001570  
792.000000	0.001540  
791.000000	0.001770  
790.000000	0.001430  
789.000000	0.001680  
788.000000	0.001670  
787.000000	0.001250  
786.000000	0.001180  
785.000000	0.001390  
784.000000	0.001290  
783.000000	0.001160  
782.000000	0.000950  
781.000000	0.000800  
780.000000	0.000820  
779.000000	0.000940  
778.000000	0.000440  
777.000000	0.001050  
776.000000	0.001190  
775.000000	0.001190  
774.000000	0.000530  
773.000000	0.000130  
772.000000	0.000230  
771.000000	0.000500  
770.000000	0.000310  
769.000000	0.000660  
768.000000	0.000920  
767.000000	0.000820  
766.000000	0.000880  
765.000000	0.000620  
764.000000	0.001110  
763.000000	0.000750  
762.000000	0.000910  
761.000000	0.000400  
760.000000	0.000690  
759.000000	0.000090  
758.000000	0.000160  
757.000000	0.000480  
756.000000	0.000980  
755.000000	0.001010  
754.000000	0.000870  
753.000000	0.000380  
752.000000	-0.000020 
751.000000	0.000050  
750.000000	-0.000150 
749.000000	0.000160  
748.000000	0.000560  
747.000000	0.000720  
746.000000	0.000930  
745.000000	0.001030  
744.000000	0.000400  
743.000000	0.000660  
742.000000	0.000880  
741.000000	0.000870  
740.000000	0.001660  
739.000000	0.001800  
738.000000	0.001580  
737.000000	0.001340  
736.000000	0.001060  
735.000000	0.000980  
734.000000	0.000580  
733.000000	0.000520  
732.000000	0.000230  
731.000000	0.000010  
730.000000	0.000430  
729.000000	0.000260  
728.000000	0.000580  
727.000000	0.000910  
726.000000	0.001030  
725.000000	0.000530  
724.000000	0.000540  
723.000000	0.000400  
722.000000	0.000540  
721.000000	0.000640  
720.000000	0.000910  
719.000000	0.000700  
718.000000	0.000700  
717.000000	0.000740  
716.000000	0.000380  
715.000000	-0.000220 
714.000000	-0.000490 
713.000000	-0.000510 
712.000000	-0.000340 
711.000000	-0.000530 
710.000000	-0.000970 
709.000000	-0.001160 
708.000000	-0.000740 
707.000000	-0.000930 
706.000000	-0.001170 
705.000000	-0.000810 
704.000000	-0.000430 
703.000000	-0.000470 
702.000000	-0.000250 
701.000000	-0.000240 
700.000000	-0.000080 
699.000000	0.000380  
698.000000	0.000620  
697.000000	0.000660  
696.000000	0.000530  
695.000000	0.000480  
694.000000	0.000270  
693.000000	0.000230  
692.000000	0.000090  
691.000000	-0.000130 
690.000000	-0.000230 
689.000000	0.000090  
688.000000	-0.000010 
687.000000	-0.000390 
686.000000	-0.000310 
685.000000	0.000080  
684.000000	0.000380  
683.000000	0.000400  
682.000000	0.000250  
681.000000	0.000010  
680.000000	-0.000270 
679.000000	-0.000580 
678.000000	-0.000560 
677.000000	-0.000960 
676.000000	-0.000960 
675.000000	-0.001000 
674.000000	-0.001050 
673.000000	-0.001310 
672.000000	-0.001030 
671.000000	-0.000750 
670.000000	-0.000580 
669.000000	-0.000570 
668.000000	-0.000390 
667.000000	-0.000570 
666.000000	-0.000740 
665.000000	-0.000680 
664.000000	-0.000650 
663.000000	-0.000750 
662.000000	-0.000650 
661.000000	-0.000740 
660.000000	-0.000599 
659.000000	-0.000440 
658.000000	-0.001060 
657.000000	-0.001150 
656.000000	-0.000660 
655.000000	-0.000510 
654.000000	-0.000370 
653.000000	-0.000320 
652.000000	-0.000530 
651.000000	-0.000490 
650.000000	-0.000920 
649.000000	-0.001480 
648.000000	-0.001610 
647.000000	-0.001390 
646.000000	-0.001170 
645.000000	-0.001180 
644.000000	-0.001190 
643.000000	-0.000870 
642.000000	-0.000850 
641.000000	-0.000940 
640.000000	-0.001140 
639.000000	-0.001390 
638.000000	-0.001180 
637.000000	-0.001210 
636.000000	-0.001390 
635.000000	-0.001240 
634.000000	-0.000900 
633.000000	-0.000770 
632.000000	-0.000390 
631.000000	-0.000650 
630.000000	-0.000810 
629.000000	-0.000980 
628.000000	-0.001070 
627.000000	-0.000990 
626.000000	-0.000880 
625.000000	-0.000850 
624.000000	-0.000540 
623.000000	-0.000640 
622.000000	-0.000740 
621.000000	-0.001090 
620.000000	-0.001370 
619.000000	-0.001640 
618.000000	-0.001490 
617.000000	-0.001250 
616.000000	-0.001160 
615.000000	-0.001220 
614.000000	-0.001230 
613.000000	-0.001010 
612.000000	-0.001140 
611.000000	-0.001440 
610.000000	-0.001470 
609.000000	-0.001290 
608.000000	-0.001680 
607.000000	-0.001220 
606.000000	-0.001510 
605.000000	-0.001890 
604.000000	-0.001860 
603.000000	-0.001600 
602.000000	-0.001730 
601.000000	-0.001910 
600.000000	-0.002100 
599.000000	-0.002360 
598.000000	-0.002570 
597.000000	-0.002450 
596.000000	-0.002590 
595.000000	-0.002630 
594.000000	-0.002800 
593.000000	-0.003090 
592.000000	-0.003140 
591.000000	-0.003290 
590.000000	-0.003120 
589.000000	-0.002890 
588.000000	-0.002780 
587.000000	-0.002850 
586.000000	-0.002590 
585.000000	-0.002310 
584.000000	-0.002440 
583.000000	-0.002850 
582.000000	-0.002790 
581.000000	-0.002640 
580.000000	-0.002340 
579.000000	-0.002010 
578.000000	-0.002240 
577.000000	-0.002590 
576.000000	-0.002570 
575.000000	-0.002130 
574.000000	-0.001960 
573.000000	-0.002130 
572.000000	-0.002540 
571.000000	-0.002550 
570.000000	-0.002860 
569.000000	-0.002760 
568.000000	-0.002670 
567.000000	-0.002610 
566.000000	-0.002330 
565.000000	-0.002030 
564.000000	-0.001990 
563.000000	-0.002150 
562.000000	-0.002060 
561.000000	-0.001980 
560.000000	-0.001970 
559.000000	-0.001690 
558.000000	-0.001610 
557.000000	-0.001470 
556.000000	-0.001550 
555.000000	-0.001390 
554.000000	-0.001710 
553.000000	-0.001460 
552.000000	-0.001390 
551.000000	-0.001480 
550.000000	-0.001840 
549.000000	-0.001880 
548.000000	-0.001480 
547.000000	-0.001520 
546.000000	-0.001520 
545.000000	-0.001120 
544.000000	-0.000960 
543.000000	-0.000750 
542.000000	-0.000700 
541.000000	-0.000520 
540.000000	-0.000460 
539.000000	-0.000470 
538.000000	-0.000420 
537.000000	-0.000550 
536.000000	-0.000540 
535.000000	-0.000610 
534.000000	-0.000820 
533.000000	-0.000810 
532.000000	-0.000980 
531.000000	-0.001150 
530.000000	-0.001260 
529.000000	-0.001270 
528.000000	-0.000990 
527.000000	-0.001290 
526.000000	-0.001310 
525.000000	-0.001120 
524.000000	-0.001090 
523.000000	-0.000870 
522.000000	-0.000730 
521.000000	-0.000760 
520.000000	-0.000390 
519.000000	-0.000140 
518.000000	-0.000210 
517.000000	-0.000280 
516.000000	-0.000540 
515.000000	-0.001010 
514.000000	-0.001040 
513.000000	-0.000880 
512.000000	-0.000850 
511.000000	-0.000930 
510.000000	-0.001100 
509.000000	-0.001120 
508.000000	-0.000810 
507.000000	-0.001010 
506.000000	-0.001130 
505.000000	-0.001220 
504.000000	-0.001130 
503.000000	-0.001140 
502.000000	-0.001160 
501.000000	-0.000780 
500.000000	-0.000430 
499.000000	-0.000940 
498.000000	-0.001050 
497.000000	-0.001150 
496.000000	-0.001320 
495.000000	-0.001380 
494.000000	-0.001520 
493.000000	-0.001130 
492.000000	-0.000850 
491.000000	-0.000889 
490.000000	-0.000910 
489.000000	-0.000720 
488.000000	-0.001150 
487.000000	-0.001490 
486.000000	-0.001220 
485.000000	-0.001220 
484.000000	-0.001260 
483.000000	-0.001140 
482.000000	-0.000840 
481.000000	-0.000910 
480.000000	-0.000889 
479.000000	-0.000690 
478.000000	-0.000720 
477.000000	-0.001090 
476.000000	-0.000960 
475.000000	-0.000680 
474.000000	-0.001120 
473.000000	-0.001010 
472.000000	-0.000820 
471.000000	-0.000740 
470.000000	-0.000650 
469.000000	-0.000610 
468.000000	-0.000820 
467.000000	-0.000910 
466.000000	-0.000840 
465.000000	-0.000760 
464.000000	-0.000420 
463.000000	-0.000570 
462.000000	-0.000750 
461.000000	-0.000860 
460.000000	-0.000910 
459.000000	-0.000980 
458.000000	-0.001170 
457.000000	-0.001030 
456.000000	-0.001050 
455.000000	-0.000790 
454.000000	-0.000940 
453.000000	-0.001220 
452.000000	-0.001220 
451.000000	-0.001250 
450.000000	-0.001180 
449.000000	-0.001260 
448.000000	-0.001020 
447.000000	-0.001360 
446.000000	-0.001330 
445.000000	-0.001320 
444.000000	-0.001360 
443.000000	-0.001230 
442.000000	-0.001230 
441.000000	-0.001390 
440.000000	-0.001450 
439.000000	-0.001160 
438.000000	-0.001230 
437.000000	-0.001150 
436.000000	-0.001090 
435.000000	-0.001280 
434.000000	-0.001130 
433.000000	-0.001060 
432.000000	-0.001120 
431.000000	-0.000670 
430.000000	-0.000550 
429.000000	-0.001070 
428.000000	-0.001010 
427.000000	-0.000900 
426.000000	-0.000840 
425.000000	-0.000570 
424.000000	-0.000730 
423.000000	-0.000920 
422.000000	-0.000670 
421.000000	-0.000380 
420.000000	-0.000810 
419.000000	-0.000630 
418.000000	-0.000490 
417.000000	-0.000570 
416.000000	-0.000670 
415.000000	-0.000900 
414.000000	-0.000680 
413.000000	-0.000670 
412.000000	-0.000590 
411.000000	-0.000970 
410.000000	-0.001050 
409.000000	-0.001080 
408.000000	-0.000670 
407.000000	-0.000880 
406.000000	-0.000820 
405.000000	-0.000720 
404.000000	-0.000670 
403.000000	-0.000889 
402.000000	-0.000800 
401.000000	-0.000740 
400.000000	-0.001280 
399.000000	-0.000950 
398.000000	-0.001110 
397.000000	-0.001270 
396.000000	-0.001210 
395.000000	-0.001220 
394.000000	-0.000800 
393.000000	-0.000860 
392.000000	-0.000650 
391.000000	-0.000820 
390.000000	-0.000610 
389.000000	-0.000920 
388.000000	-0.001040 
387.000000	-0.000650 
386.000000	-0.000910 
385.000000	-0.000680 
384.000000	-0.000720 
383.000000	-0.001100 
382.000000	-0.000810 
381.000000	-0.000900 
380.000000	-0.001090 
379.000000	-0.001300 
378.000000	-0.001120 
377.000000	-0.001070 
376.000000	-0.000780 
375.000000	-0.000620 
374.000000	-0.000720 
373.000000	-0.000940 
372.000000	-0.000780 
371.000000	-0.000900 
370.000000	-0.000750 
369.000000	-0.000770 
368.000000	-0.000760 
367.000000	-0.000860 
366.000000	-0.000410 
365.000000	-0.000670 
364.000000	-0.000790 
363.000000	-0.000840 
362.000000	-0.001040 
361.000000	-0.000840 
360.000000	-0.000880 
359.000000	-0.000570 
358.000000	-0.000520 
357.000000	-0.000720 
356.000000	-0.000510 
355.000000	-0.000770 
354.000000	-0.000760 
353.000000	-0.000920 
352.000000	-0.000920 
351.000000	-0.000720 
350.000000	-0.000640 
349.000000	-0.000430 
348.000000	-0.000670 
347.000000	-0.000500 
346.000000	-0.000560 
345.000000	-0.000370 
344.000000	-0.000440 
343.000000	-0.000640 
342.000000	-0.000770 
341.000000	-0.000780 
340.000000	-0.000570 
339.000000	-0.000560 
338.000000	-0.000880 
337.000000	-0.000620 
336.000000	-0.000570 
335.000000	-0.000340 
334.000000	-0.000330 
333.000000	-0.000700 
332.000000	-0.000750 
331.000000	-0.000830 
330.000000	-0.000560 
329.000000	-0.000030 
328.000000	-0.000550 
327.000000	-0.000320 
326.000000	-0.000750 
325.000000	-0.000570 
324.000000	-0.000510 
323.000000	-0.000400 
322.000000	-0.000350 
321.000000	-0.000460 
320.000000	-0.000490 
319.000000	-0.000380 
318.000000	-0.000380 
317.000000	-0.000340 
316.000000	-0.000420 
315.000000	-0.000460 
314.000000	-0.000270 
313.000000	-0.000440 
312.000000	-0.000370 
311.000000	-0.000160 
310.000000	-0.000350 
309.000000	-0.000210 
308.000000	-0.000240 
307.000000	-0.000260 
306.000000	-0.000130 
305.000000	-0.000270 
304.000000	-0.000190 
303.000000	-0.000180 
302.000000	-0.000069 
301.000000	-0.000110 
300.000000	-0.000100 
299.000000	-0.000030 
298.000000	-0.000060 
297.000000	-0.000160 
296.000000	0.000080  
295.000000	-0.000050 
294.000000	0.000020  
293.000000	-0.000050 
292.000000	0.000110  
291.000000	0.000100  
290.000000	0.000000  
289.000000	0.000160  
288.000000	0.000190  
287.000000	0.000130  
286.000000	0.000320  
285.000000	0.000340  
284.000000	0.000420  
283.000000	0.000380  
282.000000	0.000520  
281.000000	0.000420  
280.000000	0.000510  
279.000000	0.000599  
278.000000	0.000660  
277.000000	0.000640  
276.000000	0.000720  
275.000000	0.000720  
274.000000	0.000660  
273.000000	0.000780  
272.000000	0.000650  
271.000000	0.000640  
270.000000	0.000640  
269.000000	0.000660  
268.000000	0.000620  
267.000000	0.000670  
266.000000	0.000720  
265.000000	0.000660  
264.000000	0.000610  
263.000000	0.000650  
262.000000	0.000610  
261.000000	0.000730  
260.000000	0.000680  
259.000000	0.000740  
258.000000	0.000680  
257.000000	0.000580  
256.000000	0.000620  
255.000000	0.000720  
254.000000	0.000670  
253.000000	0.000670  
252.000000	0.000710  
251.000000	0.000870  
250.000000	0.000850  
249.000000	0.000810  
248.000000	0.000810  
247.000000	0.000889  
246.000000	0.000960  
245.000000	0.001110  
244.000000	0.001090  
243.000000	0.001050  
242.000000	0.001220  
241.000000	0.001380  
240.000000	0.001500  
239.000000	0.001550  
238.000000	0.001740  
237.000000	0.001820  
236.000000	0.001910  
235.000000	0.001930  
234.000000	0.002020  
233.000000	0.002160  
232.000000	0.002380  
231.000000	0.002390  
230.000000	0.002700  
229.000000	0.002660  
228.000000	0.002700  
227.000000	0.002840  
226.000000	0.002840  
225.000000	0.003000  
224.000000	0.003140  
223.000000	0.003320  
222.000000	0.003460  
221.000000	0.003450  
220.000000	0.003460  
219.000000	0.003570  
218.000000	0.003670  
217.000000	0.003780  
216.000000	0.003960  
215.000000	0.003850  
214.000000	0.004160  
213.000000	0.004180  
212.000000	0.004390  
211.000000	0.004650  
210.000000	0.004880  
209.000000	0.005350  
208.000000	0.005640  
207.000000	0.005870  
206.000000	0.006280  
205.000000	0.006590  
204.000000	0.007170  
203.000000	0.007530  
202.000000	0.007979  
201.000000	0.008619  
200.000000	0.008980  
199.000000	0.009740  
198.000000	0.010190  
197.000000	0.011110  
196.000000	0.011040  
195.000000	0.012110  
194.000000	0.012320  
193.000000	0.013020  
192.000000	0.013250  
191.000000	0.012310  
190.000000	0.007210  

